#kx 	ky 	kz 	real 	imag 	intensity
7.800000 3.800000 1.800000 -23.329632 -0.779786 544.879822
7.800000 3.800000 1.840000 -21.659744 -7.701231 528.453491
7.800000 3.800000 1.880000 -19.213619 -13.116391 541.202881
7.800000 3.800000 1.920000 -15.443853 -19.217054 607.807739
7.800000 3.800000 1.960000 -7.181752 -24.870705 670.129517
7.800000 3.800000 2.000000 5.711754 -24.813087 648.313477
7.800000 3.800000 2.040000 17.274162 -15.243127 530.749634
7.800000 3.800000 2.080000 19.746014 0.539910 390.196564
7.800000 3.800000 2.120000 11.164604 13.613672 309.980469
7.800000 3.800000 2.160000 -2.369419 17.248959 303.140717
7.800000 3.800000 2.200000 -12.676197 12.645592 320.596985
7.800000 3.840000 1.800000 -17.023430 -22.288691 786.582886
7.800000 3.840000 1.840000 -10.099808 -26.040215 780.098877
7.800000 3.840000 1.880000 -3.064467 -28.175699 803.260986
7.800000 3.840000 1.920000 5.550421 -28.155052 823.514160
7.800000 3.840000 1.960000 14.551368 -23.142391 747.312561
7.800000 3.840000 2.000000 19.141422 -12.860498 531.786499
7.800000 3.840000 2.040000 15.828564 -2.391679 256.263550
7.800000 3.840000 2.080000 7.457194 1.842299 59.003815
7.800000 3.840000 2.120000 1.401371 -0.933263 2.834820
7.800000 3.840000 2.160000 1.728737 -4.379610 22.169516
7.800000 3.840000 2.200000 4.105016 -2.083210 21.190922
7.800000 3.880000 1.800000 3.338008 -33.356453 1123.795288
7.800000 3.880000 1.840000 12.682189 -31.064796 1125.859497
7.800000 3.880000 1.880000 21.112646 -26.404564 1142.944824
7.800000 3.880000 1.920000 27.622665 -17.434870 1066.986328
7.800000 3.880000 1.960000 27.485695 -5.169685 782.189087
7.800000 3.880000 2.000000 18.561186 3.381973 355.955353
7.800000 3.880000 2.040000 7.209358 1.181840 53.371590
7.800000 3.880000 2.080000 4.537262 -9.518084 111.180664
7.800000 3.880000 2.120000 14.681902 -16.394022 484.322205
7.800000 3.880000 2.160000 27.896206 -8.523823 850.853882
7.800000 3.880000 2.200000 28.173590 10.739391 909.085693
7.800000 3.920000 1.800000 25.794800 -26.535557 1369.507568
7.800000 3.920000 1.840000 32.639400 -17.493946 1371.368652
7.800000 3.920000 1.880000 36.248547 -6.517212 1356.431152
7.800000 3.920000 1.920000 33.562546 6.285012 1165.945801
7.800000 3.920000 1.960000 22.030169 14.682669 700.909119
7.800000 3.920000 2.000000 7.792023 10.530211 171.600967
7.800000 3.920000 2.040000 4.204885 -4.935732 42.042503
7.800000 3.920000 2.080000 18.599567 -17.011457 635.333618
7.800000 3.920000 2.120000 40.881634 -9.252014 1756.907715
7.800000 3.920000 2.160000 49.028393 18.646580 2751.478027
7.800000 3.920000 2.200000 29.473234 46.270557 3009.636230
7.800000 3.960000 1.800000 36.604977 -5.689161 1372.290894
7.800000 3.960000 1.840000 35.900490 6.581316 1332.158936
7.800000 3.960000 1.880000 30.629883 17.446377 1242.565796
7.800000 3.960000 1.920000 19.328892 24.265053 962.398804
7.800000 3.960000 1.960000 5.384516 20.644104 455.172028
7.800000 3.960000 2.000000 0.074597 5.540499 30.702698
7.800000 3.960000 2.040000 12.886906 -9.042425 247.837799
7.800000 3.960000 2.080000 37.718273 -4.925627 1446.929932
7.800000 3.960000 2.120000 52.459465 23.791382 3318.025146
7.800000 3.960000 2.160000 37.252914 59.852280 4970.075195
7.800000 3.960000 2.200000 -4.663235 74.230675 5531.938477
7.800000 4.000000 1.800000 29.275644 16.531303 1130.347412
7.800000 4.000000 1.840000 19.908127 24.691448 1006.001099
7.800000 4.000000 1.880000 9.008185 27.188265 820.349121
7.800000 4.000000 1.920000 -1.490727 22.743376 519.483459
7.800000 4.000000 1.960000 -5.552156 10.784534 147.132629
7.800000 4.000000 2.000000 4.005135 -1.472837 18.210352
7.800000 4.000000 2.040000 24.930084 0.183655 621.542847
7.800000 4.000000 2.080000 40.540310 24.035086 2221.202148
7.800000 4.000000 2.120000 30.787609 59.407021 4477.070801
7.800000 4.000000 2.160000 -7.973850 80.130783 6484.524902
7.800000 4.000000 2.200000 -54.698868 65.651260 7302.053711
7.800000 4.040000 1.800000 8.475494 26.985867 800.070984
7.800000 4.040000 1.840000 -4.054461 24.375053 610.581909
7.800000 4.040000 1.880000 -10.937946 15.930904 373.432373
7.800000 4.040000 1.920000 -10.292674 5.547164 136.710175
7.800000 4.040000 1.960000 -0.932037 -1.740123 3.896723
7.800000 4.040000 2.000000 14.419736 1.615706 210.539291
7.800000 4.040000 2.040000 25.236416 20.549397 1059.154419
7.800000 4.040000 2.080000 17.365791 48.746689 2677.810547
7.800000 4.040000 2.120000 -14.332537 67.596436 4774.699707
7.800000 4.040000 2.160000 -56.652966 58.582386 6641.454590
7.800000 4.040000 2.200000 -84.203201 20.172680 7497.116211
7.800000 4.080000 1.800000 -13.538189 20.188652 590.864258
7.800000 4.080000 1.840000 -19.578787 6.521460 425.858337
7.800000 4.080000 1.880000 -13.875678 -6.173950 230.652100
7.800000 4.080000 1.920000 -0.547466 -10.329904 107.006630
7.800000 4.080000 1.960000 12.954669 -2.546295 174.307068
7.800000 4.080000 2.000000 18.023788 15.641050 569.499390
7.800000 4.080000 2.040000 7.635103 36.756874 1409.362549
7.800000 4.080000 2.080000 -18.830055 48.370018 2694.229736
7.800000 4.080000 2.120000 -51.693207 39.190815 4208.107422
7.800000 4.080000 2.160000 -73.854431 8.022465 5518.836914
7.800000 4.080000 2.200000 -71.387466 -32.322941 6140.942871
7.800000 4.120000 1.800000 -24.999876 0.877714 625.764160
7.800000 4.120000 1.840000 -17.550947 -16.285765 573.261841
7.800000 4.120000 1.880000 0.729453 -21.881779 479.344330
7.800000 4.120000 1.920000 17.573307 -11.286659 436.209778
7.800000 4.120000 1.960000 21.308613 9.757418 549.264160
7.800000 4.120000 2.000000 7.773822 28.994562 901.116943
7.800000 4.120000 2.040000 -17.621494 34.681854 1513.348145
7.800000 4.120000 2.080000 -42.937405 21.754042 2316.859131
7.800000 4.120000 2.120000 -55.816090 -5.629996 3147.132568
7.800000 4.120000 2.160000 -49.733292 -36.151417 3780.325195
7.800000 4.120000 2.200000 -27.334133 -57.145878 4012.806152
7.800000 4.160000 1.800000 -21.492243 -20.107862 866.242676
7.800000 4.160000 1.840000 -1.647003 -30.419241 928.042847
7.800000 4.160000 1.880000 20.400040 -21.868906 894.410645
7.800000 4.160000 1.920000 28.735409 1.276908 827.354187
7.800000 4.160000 1.960000 16.341122 23.615910 824.743408
7.800000 4.160000 2.000000 -9.500542 29.751553 975.415222
7.800000 4.160000 2.040000 -32.669849 15.172582 1297.526367
7.800000 4.160000 2.080000 -39.709671 -11.454536 1708.064453
7.800000 4.160000 2.120000 -28.159393 -35.498970 2053.128418
7.800000 4.160000 2.160000 -6.116587 -46.437622 2193.865234
7.800000 4.160000 2.200000 15.099236 -43.093002 2084.993652
7.800000 4.200000 1.800000 -7.250136 -33.172249 1152.962524
7.800000 4.200000 1.840000 16.926563 -30.982792 1246.441895
7.800000 4.200000 1.880000 32.459255 -10.512984 1164.126099
7.800000 4.200000 1.920000 27.170712 15.159541 968.059265
7.800000 4.200000 1.960000 4.082475 27.647552 781.053772
7.800000 4.200000 2.000000 -20.167202 17.881676 726.470337
7.800000 4.200000 2.040000 -28.369579 -6.683329 849.499878
7.800000 4.200000 2.080000 -15.964963 -28.584047 1071.927856
7.800000 4.200000 2.120000 6.797475 -34.426991 1231.423340
7.800000 4.200000 2.160000 24.667889 -24.138348 1191.164551
7.800000 4.200000 2.200000 29.547720 -8.294338 941.863770
7.840000 3.800000 1.800000 -20.794952 5.500273 462.683044
7.840000 3.800000 1.840000 -25.181877 -4.756109 656.747559
7.840000 3.800000 1.880000 -22.253052 -18.231153 827.573242
7.840000 3.800000 1.920000 -10.043590 -28.534893 915.113831
7.840000 3.800000 1.960000 7.355684 -28.787683 882.836792
7.840000 3.800000 2.000000 21.068920 -17.332342 744.309448
7.840000 3.800000 2.040000 23.600107 -0.202387 557.006042
7.840000 3.800000 2.080000 14.809291 12.937269 386.688049
7.840000 3.800000 2.120000 1.747574 16.311914 269.132568
7.840000 3.800000 2.160000 -7.867302 11.870968 202.814316
7.840000 3.800000 2.200000 -12.005037 5.622625 175.734848
7.840000 3.840000 1.800000 -13.847949 -13.332443 369.519714
7.840000 3.840000 1.840000 -6.913714 -21.472363 508.861786
7.840000 3.840000 1.880000 5.975166 -23.795906 601.947754
7.840000 3.840000 1.920000 18.329973 -16.066658 594.125427
7.840000 3.840000 1.960000 21.729172 -1.497991 474.400879
7.840000 3.840000 2.000000 13.632854 10.277435 291.480408
7.840000 3.840000 2.040000 0.905787 11.263145 127.678894
7.840000 3.840000 2.080000 -5.795843 2.893368 41.963375
7.840000 3.840000 2.120000 -2.225178 -4.969536 29.647703
7.840000 3.840000 2.160000 4.996776 -3.899124 40.170940
7.840000 3.840000 2.200000 5.158205 3.930113 42.052864
7.840000 3.880000 1.800000 5.166123 -20.052000 428.771545
7.840000 3.880000 1.840000 18.574015 -16.624512 621.368408
7.840000 3.880000 1.880000 28.135708 -2.076540 795.930054
7.840000 3.880000 1.920000 23.667980 17.631330 871.037109
7.840000 3.880000 1.960000 4.160675 28.096096 806.701843
7.840000 3.880000 2.000000 -17.277634 18.868597 654.540588
7.840000 3.880000 2.040000 -22.739048 -4.556175 537.823059
7.840000 3.880000 2.080000 -6.344816 -22.734154 557.098450
7.840000 3.880000 2.120000 18.125183 -19.120152 694.102478
7.840000 3.880000 2.160000 28.371557 3.570154 817.691223
7.840000 3.880000 2.200000 14.413111 24.419725 804.060791
7.840000 3.920000 1.800000 22.104626 -9.321714 575.508850
7.840000 3.920000 1.840000 29.868046 7.660089 950.777100
7.840000 3.920000 1.880000 22.265587 30.359615 1417.462646
7.840000 3.920000 1.920000 -3.777704 42.533962 1823.408936
7.840000 3.920000 1.960000 -33.863590 29.342129 2007.703369
7.840000 3.920000 2.000000 -43.800461 -5.452290 1948.207764
7.840000 3.920000 2.040000 -21.213360 -36.978996 1817.452759
7.840000 3.920000 2.080000 19.399300 -38.409691 1851.637207
7.840000 3.920000 2.120000 45.717957 -6.048073 2126.710693
7.840000 3.920000 2.160000 35.428009 34.605457 2452.681641
7.840000 3.920000 2.200000 -2.830639 50.109715 2518.995850
7.840000 3.960000 1.800000 23.751364 10.749540 679.679871
7.840000 3.960000 1.840000 16.111143 31.684450 1263.473267
7.840000 3.960000 1.880000 -9.470529 44.665668 2084.712891
7.840000 3.960000 1.920000 -42.480274 33.215958 2907.873535
7.840000 3.960000 1.960000 -58.245159 -4.216246 3410.275146
7.840000 3.960000 2.000000 -37.886646 -44.894119 3450.879883
7.840000 3.960000 2.040000 10.289743 -56.043167 3246.715576
7.840000 3.960000 2.080000 51.622101 -23.828468 3232.637207
7.840000 3.960000 2.120000 52.394371 30.368153 3667.394775
7.840000 3.960000 2.160000 10.215897 65.102295 4342.673340
7.840000 3.960000 2.200000 -42.127419 54.071274 4698.421875
7.840000 4.000000 1.800000 8.332707 24.573364 673.284241
7.840000 4.000000 1.840000 -12.524369 34.808296 1368.477295
7.840000 4.000000 1.880000 -41.069977 26.438488 2385.736816
7.840000 4.000000 1.920000 -58.397606 -5.613938 3441.796631
7.840000 4.000000 1.960000 -44.611546 -46.098198 4115.233887
7.840000 4.000000 2.000000 0.098883 -64.731766 4190.211426
7.840000 4.000000 2.040000 47.638420 -40.678020 3924.120605
7.840000 4.000000 2.080000 60.734413 14.935207 3911.729492
7.840000 4.000000 2.120000 25.018751 62.821060 4572.423340
7.840000 4.000000 2.160000 -35.566380 66.557205 5694.828613
7.840000 4.000000 2.200000 -77.038971 23.772772 6500.147461
7.840000 4.040000 1.800000 -13.064467 21.115160 616.530273
7.840000 4.040000 1.840000 -33.318645 13.413923 1290.065430
7.840000 4.040000 1.880000 -46.068375 -10.645538 2235.622559
7.840000 4.040000 1.920000 -36.956394 -42.619926 3182.233154
7.840000 4.040000 1.960000 -2.390125 -61.160816 3746.358154
7.840000 4.040000 2.000000 39.973892 -46.410263 3751.824707
7.840000 4.040000 2.040000 59.079231 -0.223058 3490.405273
7.840000 4.040000 2.080000 35.056904 48.580986 3589.098633
7.840000 4.040000 2.120000 -20.611658 63.779278 4492.636719
7.840000 4.040000 2.160000 -70.523651 31.674309 5976.847168
7.840000 4.040000 2.200000 -80.585167 -26.153427 7177.971191
7.840000 4.080000 1.800000 -25.206524 2.063523 639.626953
7.840000 4.080000 1.840000 -30.525282 -16.562384 1206.105469
7.840000 4.080000 1.880000 -21.138657 -37.775280 1873.814575
7.840000 4.080000 1.920000 3.930131 -49.216354 2437.695557
7.840000 4.080000 1.960000 34.309937 -38.661598 2671.890869
7.840000 4.080000 2.000000 50.120544 -5.389262 2541.113281
7.840000 4.080000 2.040000 35.219139 33.298332 2349.166748
7.840000 4.080000 2.080000 -7.191764 50.561653 2608.202148
7.840000 4.080000 2.120000 -52.166862 30.240051 3635.842285
7.840000 4.080000 2.160000 -69.702103 -18.149836 5187.799805
7.840000 4.080000 2.200000 -47.970795 -64.760925 6495.174805
7.840000 4.120000 1.800000 -20.087742 -20.242950 813.294434
7.840000 4.120000 1.840000 -7.638734 -34.267860 1232.636475
7.840000 4.120000 1.880000 12.950971 -37.214317 1552.633057
7.840000 4.120000 1.920000 32.364304 -24.969952 1670.946533
7.840000 4.120000 1.960000 39.466564 -0.631574 1558.008667
7.840000 4.120000 2.000000 26.914223 24.521194 1325.664307
7.840000 4.120000 2.040000 -2.459917 35.125832 1239.875244
7.840000 4.120000 2.080000 -33.994884 21.136452 1602.401855
7.840000 4.120000 2.120000 -48.481972 -13.377215 2529.451416
7.840000 4.120000 2.160000 -35.183060 -50.443359 3782.380127
7.840000 4.120000 2.200000 -0.361614 -69.488670 4828.806152
7.840000 4.160000 1.800000 -1.823025 -32.680496 1071.338257
7.840000 4.160000 1.840000 18.095346 -31.210529 1301.538696
7.840000 4.160000 1.880000 32.393387 -15.816374 1299.489258
7.840000 4.160000 1.920000 32.511684 5.666525 1089.119141
7.840000 4.160000 1.960000 17.840279 21.781132 792.693237
7.840000 4.160000 2.000000 -4.368491 23.782715 584.701294
7.840000 4.160000 2.040000 -22.949907 9.915000 625.005493
7.840000 4.160000 2.080000 -28.251347 -13.876162 990.686462
7.840000 4.160000 2.120000 -16.754475 -36.709599 1628.307007
7.840000 4.160000 2.160000 7.044033 -47.977615 2351.469971
7.840000 4.160000 2.200000 32.788845 -42.775280 2904.833008
7.840000 4.200000 1.800000 18.063728 -30.513836 1257.392456
7.840000 4.200000 1.840000 32.003029 -15.381101 1260.772095
7.840000 4.200000 1.880000 31.172171 5.723947 1004.467773
7.840000 4.200000 1.920000 15.743591 19.672461 634.866394
7.840000 4.200000 1.960000 -4.280939 18.177597 348.751495
7.840000 4.200000 2.000000 -16.560007 3.209633 284.535583
7.840000 4.200000 2.040000 -14.727066 -15.473313 456.309906
7.840000 4.200000 2.080000 -1.259887 -27.669880 767.209595
7.840000 4.200000 2.120000 16.025085 -28.697779 1080.365845
7.840000 4.200000 2.160000 29.729757 -20.257742 1294.234619
7.840000 4.200000 2.200000 36.333931 -7.268080 1372.979492
7.880000 3.800000 1.800000 -27.009842 12.100321 875.949341
7.880000 3.800000 1.840000 -32.267479 -6.838968 1087.961670
7.880000 3.800000 1.880000 -21.369141 -26.030249 1134.213989
7.880000 3.800000 1.920000 0.958717 -32.276733 1042.706665
7.880000 3.800000 1.960000 20.874996 -21.079769 880.122131
7.880000 3.800000 2.000000 26.387730 -0.671551 696.763245
7.880000 3.800000 2.040000 16.888069 14.977123 509.521118
7.880000 3.800000 2.080000 2.467342 17.902506 326.587494
7.880000 3.800000 2.120000 -6.146107 11.534835 170.827042
7.880000 3.800000 2.160000 -6.865764 5.034946 72.489395
7.880000 3.800000 2.200000 -5.699942 2.989937 41.429054
7.880000 3.840000 1.800000 -20.109760 -6.268427 443.695648
7.880000 3.840000 1.840000 -8.772808 -16.398640 345.877533
7.880000 3.840000 1.880000 7.440380 -13.050790 225.682373
7.880000 3.840000 1.920000 14.543552 2.585590 218.200195
7.880000 3.840000 1.960000 5.721245 17.403597 335.617828
7.880000 3.840000 2.000000 -11.295738 18.202503 458.924805
7.880000 3.840000 2.040000 -20.927092 4.574581 458.869965
7.880000 3.840000 2.080000 -14.703556 -10.317009 322.635254
7.880000 3.840000 2.120000 0.339029 -12.549349 157.601105
7.880000 3.840000 2.160000 8.705070 -1.427612 77.816315
7.880000 3.840000 2.200000 2.367853 9.751775 100.703842
7.880000 3.880000 1.800000 -3.421287 -11.022596 133.202835
7.880000 3.880000 1.840000 10.627865 -0.802328 113.595238
7.880000 3.880000 1.880000 9.310040 21.628586 554.472534
7.880000 3.880000 1.920000 -14.110008 36.426006 1525.946167
7.880000 3.880000 1.960000 -44.635601 25.219307 2628.350342
7.880000 3.880000 2.000000 -56.209679 -9.191387 3244.009766
7.880000 3.880000 2.040000 -35.743393 -41.799923 3024.823730
7.880000 3.880000 2.080000 2.695858 -46.547028 2173.893311
7.880000 3.880000 2.120000 28.933605 -20.496929 1257.277588
7.880000 3.880000 2.160000 23.816998 12.769222 730.302429
7.880000 3.880000 2.200000 -3.386650 24.794970 626.259949
7.880000 3.920000 1.800000 7.506277 -0.723819 56.868111
7.880000 3.920000 1.840000 5.458860 24.468258 628.494751
7.880000 3.920000 1.880000 -24.083515 43.126511 2439.911621
7.880000 3.920000 1.920000 -66.373245 29.239059 5260.330078
7.880000 3.920000 1.960000 -86.784775 -19.503197 7911.971680
7.880000 3.920000 2.000000 -61.159363 -72.549126 9003.843750
7.880000 3.920000 2.040000 -1.521111 -89.346451 7985.102051
7.880000 3.920000 2.080000 50.046234 -55.500229 5584.900879
7.880000 3.920000 2.120000 56.730652 2.439665 3224.318848
7.880000 3.920000 2.160000 19.218699 39.413479 1922.780762
7.880000 3.920000 2.200000 -26.048477 31.372238 1662.740479
7.880000 3.960000 1.800000 3.010368 12.456688 164.231384
7.880000 3.960000 1.840000 -21.666130 33.034286 1560.685303
7.880000 3.960000 1.880000 -65.757217 24.812304 4939.662109
7.880000 3.960000 1.920000 -95.228386 -24.285713 9658.241211
7.880000 3.960000 1.960000 -75.816589 -89.317284 13725.732422
7.880000 3.960000 2.000000 -8.089756 -122.390343 15044.839844
7.880000 3.960000 2.040000 65.330078 -93.375160 12986.939453
7.880000 3.960000 2.080000 92.359375 -19.807232 8922.580078
7.880000 3.960000 2.120000 56.207928 44.869179 5172.574219
7.880000 3.960000 2.160000 -9.903214 56.336227 3271.844238
7.880000 3.960000 2.200000 -52.751854 16.220440 3045.860840
7.880000 4.000000 1.800000 -11.963311 13.876773 335.685638
7.880000 4.000000 1.840000 -46.456955 12.839607 2323.104248
7.880000 4.000000 1.880000 -77.390274 -24.289045 6579.211914
7.880000 4.000000 1.920000 -69.536072 -85.593216 12161.463867
7.880000 4.000000 1.960000 -10.328621 -128.792297 16694.134766
7.880000 4.000000 2.000000 69.745567 -113.965401 17852.556641
7.880000 4.000000 2.040000 115.628540 -41.902756 15125.799805
7.880000 4.000000 2.080000 93.175934 40.224449 10299.761719
7.880000 4.000000 2.120000 20.234343 75.630524 6129.404785
7.880000 4.000000 2.160000 -47.461678 45.216621 4297.153809
7.880000 4.000000 2.200000 -63.746059 -18.388573 4401.699707
7.880000 4.040000 1.800000 -22.498381 -0.321405 506.280426
7.880000 4.040000 1.840000 -45.437889 -22.083033 2552.262207
7.880000 4.040000 1.880000 -45.536766 -66.590019 6507.827637
7.880000 4.040000 1.920000 -4.764972 -106.676643 11402.611328
7.880000 4.040000 1.960000 63.317593 -105.477104 15134.537109
7.880000 4.040000 2.000000 115.310715 -49.999809 15796.541016
7.880000 4.040000 2.040000 110.656403 30.186810 13156.083008
7.880000 4.040000 2.080000 48.145973 81.514595 8962.664062
7.880000 4.040000 2.120000 -29.088179 69.521896 5679.416016
7.880000 4.040000 2.160000 -67.757233 7.759286 4651.249023
7.880000 4.040000 2.200000 -47.680878 -54.820793 5278.785156
7.880000 4.080000 1.800000 -17.156425 -19.984066 693.705811
7.880000 4.080000 1.840000 -17.382835 -44.790436 2308.346191
7.880000 4.080000 1.880000 6.221215 -70.629631 5027.248535
7.880000 4.080000 1.920000 51.295116 -74.071495 8117.775391
7.880000 4.080000 1.960000 93.125420 -39.570339 10238.155273
7.880000 4.080000 2.000000 99.267334 21.254656 10305.764648
7.880000 4.080000 2.040000 57.291885 71.475830 8391.154297
7.880000 4.080000 2.080000 -9.721247 75.606201 5810.800293
7.880000 4.080000 2.120000 -57.649406 29.575752 4198.179199
7.880000 4.080000 2.160000 -55.757435 -34.112312 4272.541504
7.880000 4.080000 2.200000 -10.700121 -72.415878 5358.552246
7.880000 4.120000 1.800000 2.314835 -30.231056 919.275208
7.880000 4.120000 1.840000 16.936781 -39.866898 1876.224121
7.880000 4.120000 1.880000 40.514816 -38.557991 3128.168945
7.880000 4.120000 1.920000 62.935341 -18.592281 4306.530273
7.880000 4.120000 1.960000 67.787598 17.121737 4888.312012
7.880000 4.120000 2.000000 44.363239 50.927418 4561.698730
7.880000 4.120000 2.040000 0.220703 59.703159 3564.516113
7.880000 4.120000 2.080000 -39.265884 33.083267 2636.312256
